Title=75 nM SST dsDNA Cy5 - 150 mM NaCl - 70deg - anisotropy
Comment=1,1,1,1
Signature=ISS_Experiment_Ver_1_0
Timestamp=Fri Nov 30 15:03:16 2018

AcquisitionType=Photon Counting
AcquisitionFormat=L
AcquisitionSide=Right

Measurable=Polarization

RightEmissionWavelengthBandwidth=8
ExcitationWavelengthBandwidth=8
Visualization=PlotType:2D,X:Iteration,Y:Polarization


Iteration=type:index,unit:none,count:20
ExcitationWavelength=type:numeric,unit:nm,fixed:649.0
EmissionWavelength=type:numeric,unit:nm,fixed:660.0

Space=Iteration
Columns=Iteration,Polarization,Anisotropy,TotalIntensity,I_VV,I_VH,I_HV,I_HH,PolarizationStdError,AnisotropyStdError,TotalIntensityStdError,I_VVStdError,I_VHStdError,I_HVStdError,I_HHStdError,Temperature
[Data]
1  	     0.228319485      0.164751662       3883.17946           1720.9           2412.8           3361.4           7501.7     0.025241     0.018266       100.92       54.259        66.81       53.116       173.09            69.99
2  	     0.243535062      0.176701004       4026.07648           1816.3           2465.8           3361.4           7501.7     0.029613     0.021439       111.14       72.815       63.422       53.116       173.09               70
3  	     0.216624019      0.155655592       3999.27955           1748.1             2512           3361.4           7501.7     0.025185     0.018151       104.86       54.828       70.794       53.116       173.09               70
4  	     0.241944826      0.175445965       3952.94389             1780           2424.7           3361.4           7501.7     0.027993     0.020268       104.52       66.849       58.647       53.116       173.09          70.0033
5  	      0.24003907      0.173943817       3795.71699           1705.4           2332.5           3361.4           7501.7     0.025637     0.018621       98.624       55.014       63.936       53.116       173.09          70.0066
6  	     0.224231704      0.161563704        3876.2707           1709.6           2417.7           3361.4           7501.7     0.018703     0.013599       83.231       33.984       51.147       53.116       173.09          70.0066
7  	      0.21732389      0.156197762       3898.13887           1705.3           2446.9           3361.4           7501.7     0.024244     0.017448       95.052       53.502         54.8       53.116       173.09            70.01
8  	      0.22739926      0.164033181       3855.07844           1706.6           2397.4           3361.4           7501.7     0.021111     0.015323       88.872       41.674       56.363       53.116       173.09            70.01
9  	     0.243640342      0.176784145       3947.12261           1780.9           2417.2           3361.4           7501.7     0.020155     0.014766       89.702       38.879       59.726       53.116       173.09            70.01
10 	     0.247709888      0.180002745       3864.91087           1752.1           2357.6           3361.4           7501.7     0.022643      0.01647       86.325       50.956       41.215       53.116       173.09            70.01
11 	       0.2524792      0.183786926       3896.16985           1776.1           2365.7           3361.4           7501.7     0.021018     0.015434       90.367       41.613        60.29       53.116       173.09            70.01
12 	     0.272736933      0.200007792       3773.52942             1761           2245.7           3361.4           7501.7     0.020756      0.01535       84.365       41.492       52.673       53.116       173.09            70.01
13 	     0.255428944      0.186133963       3814.41546           1744.8           2309.4           3361.4           7501.7     0.024659     0.017983       92.278       55.152        51.42       53.116       173.09            70.01
14 	     0.207482765      0.148599093       3878.82133           1677.2           2456.7           3361.4           7501.7      0.02499     0.017865       90.612       58.514       35.213       53.116       173.09            70.01
15 	     0.185422245      0.131758481       3736.23793           1573.6           2413.2           3361.4           7501.7     0.029198     0.020743       106.56       62.936       68.209       53.116       173.09            70.01
16 	     0.208571242      0.149436908       3725.07316           1612.8             2357           3361.4           7501.7     0.021233     0.015244       81.107        43.71       38.305       53.116       173.09          70.0133
17 	      0.22565473       0.16267242       3669.00738           1620.9           2285.4           3361.4           7501.7     0.024932     0.018059       97.627       48.374       69.779       53.116       173.09          70.0133
18 	     0.234093302      0.169270571       3794.42951             1693           2344.9           3361.4           7501.7      0.02669     0.019302       98.888       59.322        59.11       53.116       173.09            70.01
19 	     0.247414487      0.179768792       3868.88899           1753.3           2360.7           3361.4           7501.7     0.027945     0.020317       106.08       63.263       68.343       53.116       173.09            70.01
20 	     0.254135816      0.185104433       3794.74993           1733.2           2300.4           3361.4           7501.7     0.023797     0.017356       89.432       52.463       48.918       53.116       173.09            70.01
